           1
  87   0.00  53  6
   1    0
   2    0
   5    0
   6    0
  40    0
  39    0
  height (km)  press (atm)   temp (K)    VMR gas  1   VMR gas  2   VMR gas  3   VMR gas  4   VMR gas  5   VMR gas  6   VMR gas
         0.000  0.16841E+03    2500.2000  0.55616E-03  0.42121E-07  0.39111E-03  0.45405E-04  0.16247E+00  0.83654E+00
        62.423  0.11896E+03    2325.1001  0.55170E-03  0.45867E-07  0.39419E-03  0.49912E-04  0.16239E+00  0.83662E+00
       122.108  0.84038E+02    2281.3000  0.53113E-03  0.48306E-07  0.42073E-03  0.34166E-04  0.16237E+00  0.83664E+00
       181.257  0.59365E+02    2276.2000  0.51916E-03  0.48641E-07  0.43212E-03  0.18399E-04  0.16238E+00  0.83665E+00
       239.787  0.41936E+02    2226.3999  0.51097E-03  0.50246E-07  0.44005E-03  0.12348E-04  0.16238E+00  0.83666E+00
       296.377  0.29625E+02    2120.3999  0.50119E-03  0.54125E-07  0.45154E-03  0.11572E-04  0.16233E+00  0.83670E+00
       349.808  0.20927E+02    1977.4000  0.50863E-03  0.60117E-07  0.44412E-03  0.13712E-04  0.16231E+00  0.83672E+00
       399.639  0.14783E+02    1838.8000  0.48933E-03  0.63533E-07  0.43063E-03  0.19094E-04  0.16231E+00  0.83675E+00
       446.253  0.10443E+02    1724.9000  0.43732E-03  0.64003E-07  0.43003E-03  0.27874E-04  0.16230E+00  0.83680E+00
       490.212  0.73770E+01    1631.4000  0.41957E-03  0.66451E-07  0.41457E-03  0.34316E-04  0.16230E+00  0.83683E+00
       531.957  0.52112E+01    1551.2000  0.41928E-03  0.71121E-07  0.39655E-03  0.38779E-04  0.16231E+00  0.83683E+00
       571.758  0.36812E+01    1479.6000  0.41409E-03  0.78271E-07  0.39491E-03  0.45206E-04  0.16231E+00  0.83684E+00
       609.784  0.26004E+01    1413.2000  0.41677E-03  0.89784E-07  0.40059E-03  0.53580E-04  0.16230E+00  0.83682E+00
       646.166  0.18370E+01    1351.6000  0.43591E-03  0.98446E-07  0.37111E-03  0.57823E-04  0.16232E+00  0.83682E+00
       681.033  0.12976E+01    1295.3000  0.43581E-03  0.11051E-06  0.36991E-03  0.67422E-04  0.16232E+00  0.83681E+00
       714.512  0.91667E+00    1244.5000  0.44864E-03  0.12656E-06  0.36258E-03  0.77643E-04  0.16232E+00  0.83679E+00
       746.762  0.64755E+00    1199.7000  0.45688E-03  0.14025E-06  0.35261E-03  0.80854E-04  0.16233E+00  0.83678E+00
       777.935  0.45744E+00    1160.6000  0.46569E-03  0.14632E-06  0.32048E-03  0.80427E-04  0.16234E+00  0.83680E+00
       808.149  0.32314E+00    1125.0000  0.46132E-03  0.17262E-06  0.34261E-03  0.90199E-04  0.16233E+00  0.83678E+00
       837.478  0.22827E+00    1092.2000  0.46259E-03  0.19063E-06  0.33978E-03  0.90053E-04  0.16233E+00  0.83678E+00
       865.991  0.16125E+00    1061.5000  0.47326E-03  0.19820E-06  0.30768E-03  0.84840E-04  0.16234E+00  0.83680E+00
       893.759  0.11391E+00    1034.1000  0.46979E-03  0.23057E-06  0.32539E-03  0.88471E-04  0.16233E+00  0.83679E+00
       920.867  0.80466E-01    1010.4000  0.46217E-03  0.26552E-06  0.34850E-03  0.86338E-04  0.16232E+00  0.83678E+00
       947.410  0.56842E-01     990.0900  0.45499E-03  0.27271E-06  0.33373E-03  0.72812E-04  0.16233E+00  0.83681E+00
       973.502  0.40154E-01     974.7000  0.44525E-03  0.28820E-06  0.33520E-03  0.59156E-04  0.16233E+00  0.83683E+00
       999.262  0.28365E-01     963.7000  0.42914E-03  0.32382E-06  0.37102E-03  0.47152E-04  0.16231E+00  0.83684E+00
      1024.749  0.20038E-01     953.1300  0.42160E-03  0.34190E-06  0.37940E-03  0.33636E-04  0.16231E+00  0.83685E+00
      1049.984  0.14155E-01     943.3000  0.40635E-03  0.36308E-06  0.39912E-03  0.24592E-04  0.16231E+00  0.83686E+00
      1075.018  0.99985E-02     936.8600  0.38371E-03  0.38247E-06  0.43192E-03  0.17057E-04  0.16230E+00  0.83687E+00
      1099.922  0.70633E-02     932.8800  0.37644E-03  0.38913E-06  0.43964E-03  0.99518E-05  0.16229E+00  0.83688E+00
      1124.769  0.49896E-02     931.0800  0.36864E-03  0.39129E-06  0.44761E-03  0.54501E-05  0.16229E+00  0.83689E+00
      1149.597  0.35247E-02     930.2200  0.36050E-03  0.39165E-06  0.45625E-03  0.29087E-05  0.16229E+00  0.83689E+00
      1174.398  0.24899E-02     927.9800  0.35604E-03  0.39509E-06  0.46110E-03  0.15893E-05  0.16229E+00  0.83689E+00
      1199.110  0.17589E-02     922.3200  0.35506E-03  0.40551E-06  0.46206E-03  0.94363E-06  0.16229E+00  0.83689E+00
      1223.653  0.12424E-02     913.8000  0.35408E-03  0.42179E-06  0.46302E-03  0.61108E-06  0.16229E+00  0.83689E+00
      1247.940  0.87770E-03     902.4900  0.35327E-03  0.44463E-06  0.46387E-03  0.42993E-06  0.16229E+00  0.83689E+00
      1271.911  0.62002E-03     888.8000  0.35457E-03  0.48184E-06  0.46238E-03  0.34834E-06  0.16229E+00  0.83690E+00
      1295.529  0.43799E-03     875.0100  0.35490E-03  0.52384E-06  0.46196E-03  0.29007E-06  0.16229E+00  0.83690E+00
      1318.796  0.30940E-03     861.5300  0.35375E-03  0.56794E-06  0.46302E-03  0.24060E-06  0.16229E+00  0.83690E+00
      1341.712  0.21856E-03     847.7600  0.35343E-03  0.61716E-06  0.46334E-03  0.20086E-06  0.16229E+00  0.83690E+00
      1364.257  0.15439E-03     832.7500  0.35318E-03  0.67577E-06  0.46345E-03  0.17551E-06  0.16229E+00  0.83690E+00
      1386.387  0.10906E-03     815.8900  0.35278E-03  0.74817E-06  0.46366E-03  0.16448E-06  0.16229E+00  0.83690E+00
      1408.053  0.77045E-04     797.3600  0.35270E-03  0.84062E-06  0.46355E-03  0.16749E-06  0.16229E+00  0.83690E+00
      1429.226  0.54425E-04     778.1400  0.35343E-03  0.97477E-06  0.46249E-03  0.20119E-06  0.16229E+00  0.83690E+00
      1449.906  0.38447E-04     759.9600  0.35318E-03  0.11205E-05  0.46249E-03  0.23153E-06  0.16229E+00  0.83690E+00
      1470.137  0.27159E-04     743.8100  0.35237E-03  0.12679E-05  0.46302E-03  0.24356E-06  0.16229E+00  0.83690E+00
      1489.981  0.19186E-04     730.5800  0.35213E-03  0.14035E-05  0.46302E-03  0.22325E-06  0.16229E+00  0.83690E+00
      1509.517  0.13552E-04     719.8400  0.35278E-03  0.15396E-05  0.46196E-03  0.19147E-06  0.16229E+00  0.83690E+00
      1528.808  0.95737E-05     711.9600  0.35237E-03  0.16603E-05  0.46217E-03  0.14897E-06  0.16229E+00  0.83690E+00
      1547.921  0.67630E-05     705.8000  0.35229E-03  0.17616E-05  0.46196E-03  0.10500E-06  0.16229E+00  0.83690E+00
      1566.932  0.47775E-05     703.7500  0.35188E-03  0.17964E-05  0.46227E-03  0.58898E-07  0.16229E+00  0.83690E+00
      1585.926  0.33749E-05     703.7300  0.35156E-03  0.17964E-05  0.46259E-03  0.29478E-07  0.16229E+00  0.83690E+00
      1605.058  0.23840E-05     713.2500  0.35148E-03  0.16391E-05  0.46302E-03  0.86278E-08  0.16229E+00  0.83690E+00
