 original name of this file: test_point_angle.drv          
      1.143   0.209844        17   0.000     :Vmin dV Npts FWHM-CORRK
    0.000   0.000       : Additional codes PAR1 and PAR2
  TEST_POINT_ANGLE.KLS                                                                               
   24   0     1   0             : spectral model code, FLAGH2P, NCONT, FLAGC
 test_point_angle.xsc           : Dust x-section file
  200   1   6           : number of layers, paths and gases
    1                                    : identifier for gas 1
      0   0                              : isotope ID and process parameter
    2                                    : identifier for gas 2
      0   0                              : isotope ID and process parameter
    5                                    : identifier for gas 3
      0   0                              : isotope ID and process parameter
    6                                    : identifier for gas 4
      0   0                              : isotope ID and process parameter
   40                                    : identifier for gas 5
      0   0                              : isotope ID and process parameter
   39                                    : identifier for gas 6
      0   0                              : isotope ID and process parameter
format of layer data
 layer baseH  delH   baseP      baseT   totam       pressure    temp   doppler
        absorber amounts and partial pressures
        continuum points if any
  1    0.00    8.67 0.19739E+02 2294.230 0.53493E+26 0.19266E+02 2293.138  0.0000
         0.53493E+22 0.19266E-02 0.53493E+22 0.19266E-02 0.53493E+22 0.19266E-02
 0.53493E+22 0.19266E-02 0.72724E+25 0.26192E+01 0.46199E+26 0.16639E+02
         0.00000E+00
  2    8.67    8.67 0.18785E+02 2292.027 0.50932E+26 0.18335E+02 2290.987  0.0000
         0.50932E+22 0.18335E-02 0.50932E+22 0.18335E-02 0.50932E+22 0.18335E-02
 0.50932E+22 0.18335E-02 0.69242E+25 0.24926E+01 0.43987E+26 0.15835E+02
         0.00000E+00
  3   17.34    8.67 0.17878E+02 2289.931 0.48532E+26 0.17449E+02 2288.939  0.0000
         0.48532E+22 0.17449E-02 0.48532E+22 0.17449E-02 0.48532E+22 0.17449E-02
 0.48532E+22 0.17449E-02 0.65979E+25 0.23722E+01 0.41914E+26 0.15070E+02
         0.00000E+00
  4   26.01    8.66 0.17014E+02 2287.932 0.46192E+26 0.16606E+02 2286.990  0.0000
         0.46192E+22 0.16606E-02 0.46192E+22 0.16606E-02 0.46192E+22 0.16606E-02
 0.46192E+22 0.16606E-02 0.62798E+25 0.22577E+01 0.39894E+26 0.14342E+02
         0.00000E+00
  5   34.68    8.65 0.16192E+02 2286.032 0.43914E+26 0.15804E+02 2285.137  0.0000
         0.43914E+22 0.15804E-02 0.43914E+22 0.15804E-02 0.43914E+22 0.15804E-02
 0.43914E+22 0.15804E-02 0.59701E+25 0.21486E+01 0.37926E+26 0.13649E+02
         0.00000E+00
  6   43.32    8.65 0.15410E+02 2284.226 0.41848E+26 0.15040E+02 2283.371  0.0000
         0.41848E+22 0.15040E-02 0.41848E+22 0.15040E-02 0.41848E+22 0.15040E-02
 0.41848E+22 0.15040E-02 0.56892E+25 0.20447E+01 0.36142E+26 0.12990E+02
         0.00000E+00
  7   51.98    8.64 0.14665E+02 2282.505 0.39814E+26 0.14313E+02 2281.691  0.0000
         0.39814E+22 0.14313E-02 0.39814E+22 0.14313E-02 0.39814E+22 0.14313E-02
 0.39814E+22 0.14313E-02 0.54127E+25 0.19459E+01 0.34386E+26 0.12362E+02
         0.00000E+00
  8   60.62    8.65 0.13957E+02 2280.867 0.37925E+26 0.13622E+02 2280.092  0.0000
         0.37925E+22 0.13622E-02 0.37925E+22 0.13622E-02 0.37925E+22 0.13622E-02
 0.37925E+22 0.13622E-02 0.51559E+25 0.18519E+01 0.32754E+26 0.11765E+02
         0.00000E+00
  9   69.27    8.63 0.13283E+02 2279.308 0.36067E+26 0.12964E+02 2278.572  0.0000
         0.36067E+22 0.12964E-02 0.36067E+22 0.12964E-02 0.36067E+22 0.12964E-02
 0.36067E+22 0.12964E-02 0.49032E+25 0.17625E+01 0.31149E+26 0.11196E+02
         0.00000E+00
 10   77.90    8.64 0.12641E+02 2277.826 0.34363E+26 0.12338E+02 2277.124  0.0000
         0.34363E+22 0.12338E-02 0.34363E+22 0.12338E-02 0.34363E+22 0.12338E-02
 0.34363E+22 0.12338E-02 0.46716E+25 0.16773E+01 0.29677E+26 0.10655E+02
         0.00000E+00
 11   86.54    8.62 0.12030E+02 2276.413 0.32675E+26 0.11741E+02 2274.521  0.0000
         0.32675E+22 0.11741E-02 0.32675E+22 0.11741E-02 0.32675E+22 0.11741E-02
 0.32675E+22 0.11741E-02 0.44421E+25 0.15962E+01 0.28219E+26 0.10140E+02
         0.00000E+00
 12   95.16    8.61 0.11449E+02 2272.471 0.31140E+26 0.11174E+02 2269.473  0.0000
         0.31140E+22 0.11174E-02 0.31140E+22 0.11174E-02 0.31140E+22 0.11174E-02
 0.31140E+22 0.11174E-02 0.42334E+25 0.15191E+01 0.26894E+26 0.96503E+01
         0.00000E+00
 13  103.78    8.60 0.10896E+02 2266.309 0.29650E+26 0.10634E+02 2263.323  0.0000
         0.29650E+22 0.10634E-02 0.29650E+22 0.10634E-02 0.29650E+22 0.10634E-02
 0.29650E+22 0.10634E-02 0.40309E+25 0.14457E+01 0.25607E+26 0.91841E+01
         0.00000E+00
 14  112.37    8.56 0.10369E+02 2260.310 0.28189E+26 0.10120E+02 2257.469  0.0000
         0.28189E+22 0.10120E-02 0.28189E+22 0.10120E-02 0.28189E+22 0.10120E-02
 0.28189E+22 0.10120E-02 0.38322E+25 0.13758E+01 0.24345E+26 0.87402E+01
         0.00000E+00
 15  120.94    8.55 0.98685E+01 2254.606 0.26841E+26 0.96312E+01 2251.904  0.0000
         0.26841E+22 0.96312E-03 0.26841E+22 0.96312E-03 0.26841E+22 0.96312E-03
 0.26841E+22 0.96312E-03 0.36490E+25 0.13094E+01 0.23181E+26 0.83180E+01
         0.00000E+00
 16  129.48    8.53 0.93918E+01 2249.177 0.25557E+26 0.91659E+01 2246.605  0.0000
         0.25557E+22 0.91659E-03 0.25557E+22 0.91659E-03 0.25557E+22 0.91659E-03
 0.25557E+22 0.91659E-03 0.34745E+25 0.12461E+01 0.22072E+26 0.79161E+01
         0.00000E+00
 17  138.02    8.51 0.89380E+01 2244.010 0.24327E+26 0.87230E+01 2241.561  0.0000
         0.24326E+22 0.87230E-03 0.24326E+22 0.87230E-03 0.24326E+22 0.87230E-03
 0.24326E+22 0.87230E-03 0.33072E+25 0.11859E+01 0.21010E+26 0.75336E+01
         0.00000E+00
 18  146.53    8.50 0.85062E+01 2239.092 0.23156E+26 0.83015E+01 2236.760  0.0000
         0.23156E+22 0.83015E-03 0.23156E+22 0.83015E-03 0.23156E+22 0.83015E-03
 0.23156E+22 0.83015E-03 0.31480E+25 0.11286E+01 0.19998E+26 0.71696E+01
         0.00000E+00
 19  155.03    8.48 0.80953E+01 2234.412 0.22045E+26 0.79005E+01 2232.193  0.0000
         0.22045E+22 0.79005E-03 0.22045E+22 0.79005E-03 0.22045E+22 0.79005E-03
 0.22045E+22 0.79005E-03 0.29970E+25 0.10741E+01 0.19039E+26 0.68233E+01
         0.00000E+00
 20  163.51    8.47 0.77042E+01 2229.958 0.20980E+26 0.75189E+01 2227.848  0.0000
         0.20980E+22 0.75189E-03 0.20980E+22 0.75189E-03 0.20980E+22 0.75189E-03
 0.20980E+22 0.75189E-03 0.28522E+25 0.10222E+01 0.18119E+26 0.64937E+01
         0.00000E+00
 21  171.98    8.45 0.73320E+01 2225.719 0.19970E+26 0.71555E+01 2223.543  0.0000
         0.19970E+22 0.71555E-03 0.19970E+22 0.71555E-03 0.19970E+22 0.71555E-03
 0.19970E+22 0.71555E-03 0.27150E+25 0.97279E+00 0.17247E+26 0.61799E+01
         0.00000E+00
 22  180.43    8.43 0.69778E+01 2221.312 0.19008E+26 0.68097E+01 2216.301  0.0000
         0.19008E+22 0.68097E-03 0.19008E+22 0.68097E-03 0.19008E+22 0.68097E-03
 0.19008E+22 0.68097E-03 0.25841E+25 0.92577E+00 0.16416E+26 0.58812E+01
         0.00000E+00
 23  188.86    8.39 0.66406E+01 2210.548 0.18099E+26 0.64807E+01 2205.063  0.0000
         0.18099E+22 0.64807E-03 0.18099E+22 0.64807E-03 0.18099E+22 0.64807E-03
 0.18099E+22 0.64807E-03 0.24606E+25 0.88105E+00 0.15631E+26 0.55970E+01
         0.00000E+00
 24  197.24    8.35 0.63198E+01 2199.546 0.17224E+26 0.61676E+01 2194.326  0.0000
         0.17224E+22 0.61676E-03 0.17224E+22 0.61676E-03 0.17224E+22 0.61676E-03
 0.17224E+22 0.61676E-03 0.23416E+25 0.83848E+00 0.14875E+26 0.53266E+01
         0.00000E+00
 25  205.59    8.31 0.60145E+01 2189.078 0.16399E+26 0.58696E+01 2184.109  0.0000
         0.16399E+22 0.58696E-03 0.16399E+22 0.58696E-03 0.16399E+22 0.58696E-03
 0.16399E+22 0.58696E-03 0.22295E+25 0.79797E+00 0.14163E+26 0.50693E+01
         0.00000E+00
 26  213.90    8.27 0.57239E+01 2179.113 0.15607E+26 0.55860E+01 2174.385  0.0000
         0.15607E+22 0.55860E-03 0.15607E+22 0.55860E-03 0.15607E+22 0.55860E-03
 0.15607E+22 0.55860E-03 0.21218E+25 0.75942E+00 0.13479E+26 0.48244E+01
         0.00000E+00
 27  222.18    8.24 0.54474E+01 2169.632 0.14861E+26 0.53160E+01 2165.128  0.0000
         0.14861E+22 0.53160E-03 0.14861E+22 0.53160E-03 0.14861E+22 0.53160E-03
 0.14861E+22 0.53160E-03 0.20203E+25 0.72272E+00 0.12835E+26 0.45912E+01
         0.00000E+00
 28  230.42    8.21 0.51842E+01 2160.607 0.14144E+26 0.50592E+01 2156.320  0.0000
         0.14144E+22 0.50592E-03 0.14144E+22 0.50592E-03 0.14144E+22 0.50592E-03
 0.14144E+22 0.50592E-03 0.19229E+25 0.68780E+00 0.12215E+26 0.43694E+01
         0.00000E+00
 29  238.63    8.18 0.49338E+01 2152.019 0.13465E+26 0.48148E+01 2147.938  0.0000
         0.13465E+22 0.48148E-03 0.13465E+22 0.48148E-03 0.13465E+22 0.48148E-03
 0.13465E+22 0.48148E-03 0.18306E+25 0.65457E+00 0.11629E+26 0.41583E+01
         0.00000E+00
 30  246.81    8.15 0.46954E+01 2143.844 0.12812E+26 0.45822E+01 2139.963  0.0000
         0.12812E+22 0.45822E-03 0.12812E+22 0.45822E-03 0.12812E+22 0.45822E-03
 0.12812E+22 0.45822E-03 0.17418E+25 0.62295E+00 0.11065E+26 0.39574E+01
         0.00000E+00
 31  254.96    8.13 0.44686E+01 2136.068 0.12200E+26 0.43608E+01 2132.374  0.0000
         0.12200E+22 0.43608E-03 0.12200E+22 0.43608E-03 0.12200E+22 0.43608E-03
 0.12200E+22 0.43608E-03 0.16586E+25 0.59285E+00 0.10536E+26 0.37662E+01
         0.00000E+00
 32  263.09    8.09 0.42527E+01 2128.665 0.11608E+26 0.41501E+01 2123.396  0.0000
         0.11608E+22 0.41501E-03 0.11608E+22 0.41501E-03 0.11608E+22 0.41501E-03
 0.11608E+22 0.41501E-03 0.15782E+25 0.56420E+00 0.10026E+26 0.35842E+01
         0.00000E+00
 33  271.18    8.04 0.40472E+01 2117.441 0.11053E+26 0.39496E+01 2110.500  0.0000
         0.11053E+22 0.39496E-03 0.11053E+22 0.39496E-03 0.11053E+22 0.39496E-03
 0.11053E+22 0.39496E-03 0.15027E+25 0.53694E+00 0.95461E+25 0.34110E+01
         0.00000E+00
 34  279.22    7.99 0.38517E+01 2103.055 0.10525E+26 0.37588E+01 2095.938  0.0000
         0.10525E+22 0.37588E-03 0.10525E+22 0.37588E-03 0.10525E+22 0.37588E-03
 0.10525E+22 0.37588E-03 0.14309E+25 0.51100E+00 0.90901E+25 0.32462E+01
         0.00000E+00
 35  287.22    7.94 0.36656E+01 2088.805 0.10014E+26 0.35771E+01 2082.029  0.0000
         0.10014E+22 0.35771E-03 0.10014E+22 0.35771E-03 0.10014E+22 0.35771E-03
 0.10014E+22 0.35771E-03 0.13614E+25 0.48631E+00 0.86484E+25 0.30894E+01
         0.00000E+00
 36  295.15    7.89 0.34885E+01 2075.251 0.95320E+25 0.34043E+01 2068.800  0.0000
         0.95320E+21 0.34043E-03 0.95320E+21 0.34043E-03 0.95320E+21 0.34043E-03
 0.95320E+21 0.34043E-03 0.12959E+25 0.46281E+00 0.82323E+25 0.29401E+01
         0.00000E+00
 37  303.04    7.85 0.33200E+01 2062.350 0.90764E+25 0.32398E+01 2056.209  0.0000
         0.90764E+21 0.32398E-03 0.90764E+21 0.32398E-03 0.90764E+21 0.32398E-03
 0.90764E+21 0.32398E-03 0.12339E+25 0.44045E+00 0.78388E+25 0.27980E+01
         0.00000E+00
 38  310.89    7.80 0.31596E+01 2050.070 0.86389E+25 0.30833E+01 2044.231  0.0000
         0.86389E+21 0.30833E-03 0.86389E+21 0.30833E-03 0.86389E+21 0.30833E-03
 0.86389E+21 0.30833E-03 0.11745E+25 0.41918E+00 0.74610E+25 0.26629E+01
         0.00000E+00
 39  318.69    7.76 0.30070E+01 2038.385 0.82230E+25 0.29344E+01 2032.831  0.0000
         0.82230E+21 0.29344E-03 0.82230E+21 0.29344E-03 0.82230E+21 0.29344E-03
 0.82230E+21 0.29344E-03 0.11179E+25 0.39893E+00 0.71018E+25 0.25343E+01
         0.00000E+00
 40  326.45    7.72 0.28617E+01 2027.264 0.78263E+25 0.27926E+01 2021.979  0.0000
         0.78263E+21 0.27926E-03 0.78263E+21 0.27926E-03 0.78263E+21 0.27926E-03
 0.78263E+21 0.27926E-03 0.10640E+25 0.37966E+00 0.67592E+25 0.24119E+01
         0.00000E+00
 41  334.17    7.68 0.27234E+01 2016.682 0.74502E+25 0.26577E+01 2011.651  0.0000
         0.74502E+21 0.26577E-03 0.74502E+21 0.26577E-03 0.74502E+21 0.26577E-03
 0.74502E+21 0.26577E-03 0.10129E+25 0.36132E+00 0.64344E+25 0.22953E+01
         0.00000E+00
 42  341.85    7.64 0.25919E+01 2006.610 0.70894E+25 0.25293E+01 2001.557  0.0000
         0.70894E+21 0.25293E-03 0.70894E+21 0.25293E-03 0.70894E+21 0.25293E-03
 0.70894E+21 0.25293E-03 0.96380E+24 0.34385E+00 0.61228E+25 0.21844E+01
         0.00000E+00
 43  349.49    7.60 0.24666E+01 1996.365 0.67485E+25 0.24070E+01 1989.262  0.0000
         0.67485E+21 0.24070E-03 0.67485E+21 0.24070E-03 0.67485E+21 0.24070E-03
 0.67485E+21 0.24070E-03 0.91745E+24 0.32723E+00 0.58283E+25 0.20788E+01
         0.00000E+00
 44  357.08    7.54 0.23475E+01 1980.993 0.64280E+25 0.22907E+01 1972.956  0.0000
         0.64280E+21 0.22907E-03 0.64280E+21 0.22907E-03 0.64280E+21 0.22907E-03
 0.64280E+21 0.22907E-03 0.87389E+24 0.31143E+00 0.55516E+25 0.19784E+01
         0.00000E+00
 45  364.63    7.48 0.22341E+01 1964.927 0.61157E+25 0.21801E+01 1957.286  0.0000
         0.61157E+21 0.21801E-03 0.61157E+21 0.21801E-03 0.61157E+21 0.21801E-03
 0.61157E+21 0.21801E-03 0.83142E+24 0.29638E+00 0.52818E+25 0.18828E+01
         0.00000E+00
 46  372.10    7.42 0.21261E+01 1949.645 0.58209E+25 0.20748E+01 1942.375  0.0000
         0.58209E+21 0.20748E-03 0.58209E+21 0.20748E-03 0.58209E+21 0.20748E-03
 0.58209E+21 0.20748E-03 0.79135E+24 0.28207E+00 0.50272E+25 0.17919E+01
         0.00000E+00
 47  379.53    7.37 0.20234E+01 1935.103 0.55424E+25 0.19745E+01 1928.178  0.0000
         0.55424E+21 0.19745E-03 0.55424E+21 0.19745E-03 0.55424E+21 0.19745E-03
 0.55424E+21 0.19745E-03 0.75349E+24 0.26843E+00 0.47867E+25 0.17053E+01
         0.00000E+00
 48  386.90    7.32 0.19257E+01 1921.260 0.52750E+25 0.18791E+01 1914.667  0.0000
         0.52750E+21 0.18791E-03 0.52750E+21 0.18791E-03 0.52750E+21 0.18791E-03
 0.52750E+21 0.18791E-03 0.71714E+24 0.25546E+00 0.45557E+25 0.16229E+01
         0.00000E+00
 49  394.22    7.27 0.18326E+01 1908.086 0.50218E+25 0.17883E+01 1901.810  0.0000
         0.50218E+21 0.17883E-03 0.50218E+21 0.17883E-03 0.50218E+21 0.17883E-03
 0.50218E+21 0.17883E-03 0.68271E+24 0.24312E+00 0.43370E+25 0.15445E+01
         0.00000E+00
 50  401.49    7.23 0.17441E+01 1895.547 0.47815E+25 0.17019E+01 1889.576  0.0000
         0.47815E+21 0.17019E-03 0.47815E+21 0.17019E-03 0.47815E+21 0.17019E-03
 0.47815E+21 0.17019E-03 0.65004E+24 0.23138E+00 0.41295E+25 0.14699E+01
         0.00000E+00
 51  408.72    7.18 0.16598E+01 1883.610 0.45498E+25 0.16197E+01 1877.929  0.0000
         0.45498E+21 0.16197E-03 0.45498E+21 0.16197E-03 0.45498E+21 0.16197E-03
 0.45498E+21 0.16197E-03 0.61854E+24 0.22020E+00 0.39294E+25 0.13989E+01
         0.00000E+00
 52  415.91    7.14 0.15796E+01 1872.255 0.43314E+25 0.15414E+01 1866.842  0.0000
         0.43314E+21 0.15414E-03 0.43314E+21 0.15414E-03 0.43314E+21 0.15414E-03
 0.43314E+21 0.15414E-03 0.58886E+24 0.20956E+00 0.37409E+25 0.13312E+01
         0.00000E+00
 53  423.05    7.10 0.15033E+01 1861.447 0.41193E+25 0.14669E+01 1855.209  0.0000
         0.41193E+21 0.14669E-03 0.41193E+21 0.14669E-03 0.41193E+21 0.14669E-03
 0.41193E+21 0.14669E-03 0.56001E+24 0.19943E+00 0.35576E+25 0.12669E+01
         0.00000E+00
 54  430.15    7.05 0.14307E+01 1848.209 0.39245E+25 0.13961E+01 1840.771  0.0000
         0.39245E+21 0.13961E-03 0.39245E+21 0.13961E-03 0.39245E+21 0.13961E-03
 0.39245E+21 0.13961E-03 0.53353E+24 0.18980E+00 0.33894E+25 0.12057E+01
         0.00000E+00
 55  437.19    6.99 0.13616E+01 1832.904 0.37365E+25 0.13286E+01 1825.312  0.0000
         0.37365E+21 0.13286E-03 0.37365E+21 0.13286E-03 0.37365E+21 0.13286E-03
 0.37365E+21 0.13286E-03 0.50798E+24 0.18063E+00 0.32271E+25 0.11475E+01
         0.00000E+00
 56  444.19    6.93 0.12958E+01 1817.744 0.35533E+25 0.12644E+01 1810.522  0.0000
         0.35533E+21 0.12644E-03 0.35533E+21 0.12644E-03 0.35533E+21 0.12644E-03
 0.35533E+21 0.12644E-03 0.48307E+24 0.17190E+00 0.30688E+25 0.10920E+01
         0.00000E+00
 57  451.12    6.88 0.12332E+01 1803.328 0.33850E+25 0.12033E+01 1796.450  0.0000
         0.33850E+21 0.12033E-03 0.33850E+21 0.12033E-03 0.33850E+21 0.12033E-03
 0.33850E+21 0.12033E-03 0.46019E+24 0.16359E+00 0.29235E+25 0.10393E+01
         0.00000E+00
 58  458.00    6.83 0.11736E+01 1789.599 0.32206E+25 0.11452E+01 1783.057  0.0000
         0.32206E+21 0.11452E-03 0.32206E+21 0.11452E-03 0.32206E+21 0.11452E-03
 0.32206E+21 0.11452E-03 0.43785E+24 0.15569E+00 0.27815E+25 0.98907E+00
         0.00000E+00
 59  464.83    6.78 0.11169E+01 1776.538 0.30634E+25 0.10899E+01 1770.319  0.0000
         0.30634E+21 0.10899E-03 0.30634E+21 0.10899E-03 0.30634E+21 0.10899E-03
 0.30634E+21 0.10899E-03 0.41647E+24 0.14817E+00 0.26457E+25 0.94130E+00
         0.00000E+00
 60  471.61    6.74 0.10630E+01 1764.117 0.29195E+25 0.10372E+01 1758.193  0.0000
         0.29195E+21 0.10372E-03 0.29195E+21 0.10372E-03 0.29195E+21 0.10372E-03
 0.29195E+21 0.10372E-03 0.39690E+24 0.14101E+00 0.25214E+25 0.89582E+00
         0.00000E+00
 61  478.35    6.70 0.10116E+01 1752.282 0.27791E+25 0.98712E+00 1746.637  0.0000
         0.27791E+21 0.98712E-04 0.27791E+21 0.98712E-04 0.27791E+21 0.98712E-04
 0.27791E+21 0.98712E-04 0.37782E+24 0.13420E+00 0.24002E+25 0.85253E+00
         0.00000E+00
 62  485.04    6.65 0.96274E+00 1741.019 0.26439E+25 0.93942E+00 1735.647  0.0000
         0.26439E+21 0.93942E-04 0.26439E+21 0.93942E-04 0.26439E+21 0.93942E-04
 0.26439E+21 0.93942E-04 0.35944E+24 0.12771E+00 0.22834E+25 0.81133E+00
         0.00000E+00
 63  491.70    6.61 0.91622E+00 1730.304 0.25167E+25 0.89404E+00 1725.017  0.0000
         0.25167E+21 0.89404E-04 0.25167E+21 0.89404E-04 0.25167E+21 0.89404E-04
 0.25167E+21 0.89404E-04 0.34214E+24 0.12154E+00 0.21735E+25 0.77213E+00
         0.00000E+00
 64  498.31    6.57 0.87196E+00 1719.596 0.23951E+25 0.85083E+00 1713.473  0.0000
         0.23951E+21 0.85083E-04 0.23951E+21 0.85083E-04 0.23951E+21 0.85083E-04
 0.23951E+21 0.85083E-04 0.32561E+24 0.11567E+00 0.20685E+25 0.73482E+00
         0.00000E+00
 65  504.88    6.52 0.82983E+00 1706.540 0.22805E+25 0.80973E+00 1699.712  0.0000
         0.22805E+21 0.80973E-04 0.22805E+21 0.80973E-04 0.22805E+21 0.80973E-04
 0.22805E+21 0.80973E-04 0.31003E+24 0.11008E+00 0.19695E+25 0.69933E+00
         0.00000E+00
 66  511.40    6.47 0.78974E+00 1692.921 0.21709E+25 0.77063E+00 1686.427  0.0000
         0.21709E+21 0.77063E-04 0.21709E+21 0.77063E-04 0.21709E+21 0.77063E-04
 0.21709E+21 0.77063E-04 0.29513E+24 0.10477E+00 0.18749E+25 0.66556E+00
         0.00000E+00
 67  517.87    6.42 0.75159E+00 1679.958 0.20660E+25 0.73341E+00 1673.780  0.0000
         0.20660E+21 0.73341E-04 0.20660E+21 0.73341E-04 0.20660E+21 0.73341E-04
 0.20660E+21 0.73341E-04 0.28087E+24 0.99706E-01 0.17843E+25 0.63341E+00
         0.00000E+00
 68  524.29    6.38 0.71528E+00 1667.623 0.19663E+25 0.69797E+00 1661.744  0.0000
         0.19663E+21 0.69797E-04 0.19663E+21 0.69797E-04 0.19663E+21 0.69797E-04
 0.19663E+21 0.69797E-04 0.26732E+24 0.94889E-01 0.16982E+25 0.60280E+00
         0.00000E+00
 69  530.67    6.33 0.68072E+00 1655.884 0.18720E+25 0.66425E+00 1650.288  0.0000
         0.18720E+21 0.66425E-04 0.18720E+21 0.66425E-04 0.18720E+21 0.66425E-04
 0.18720E+21 0.66425E-04 0.25450E+24 0.90305E-01 0.16168E+25 0.57368E+00
         0.00000E+00
 70  537.00    6.29 0.64784E+00 1644.711 0.17817E+25 0.63215E+00 1639.382  0.0000
         0.17817E+21 0.63215E-04 0.17817E+21 0.63215E-04 0.17817E+21 0.63215E-04
 0.17817E+21 0.63215E-04 0.24222E+24 0.85941E-01 0.15388E+25 0.54596E+00
         0.00000E+00
 71  543.30    6.25 0.61654E+00 1634.080 0.16959E+25 0.60161E+00 1629.008  0.0000
         0.16959E+21 0.60161E-04 0.16959E+21 0.60161E-04 0.16959E+21 0.60161E-04
 0.16959E+21 0.60161E-04 0.23056E+24 0.81789E-01 0.14647E+25 0.51958E+00
         0.00000E+00
 72  549.55    6.22 0.58675E+00 1623.961 0.16142E+25 0.57255E+00 1619.136  0.0000
         0.16142E+21 0.57255E-04 0.16142E+21 0.57255E-04 0.16142E+21 0.57255E-04
 0.16142E+21 0.57255E-04 0.21945E+24 0.77838E-01 0.13941E+25 0.49448E+00
         0.00000E+00
 73  555.77    6.18 0.55841E+00 1614.331 0.15364E+25 0.54487E+00 1609.734  0.0000
         0.15364E+21 0.54487E-04 0.15364E+21 0.54487E-04 0.15364E+21 0.54487E-04
 0.15364E+21 0.54487E-04 0.20887E+24 0.74076E-01 0.13269E+25 0.47058E+00
         0.00000E+00
 74  561.95    6.15 0.53143E+00 1605.167 0.14626E+25 0.51855E+00 1600.376  0.0000
         0.14626E+21 0.51855E-04 0.14626E+21 0.51855E-04 0.14626E+21 0.51855E-04
 0.14626E+21 0.51855E-04 0.19884E+24 0.70497E-01 0.12631E+25 0.44785E+00
         0.00000E+00
 75  568.10    6.11 0.50575E+00 1595.120 0.13921E+25 0.49351E+00 1589.771  0.0000
         0.13921E+21 0.49351E-04 0.13921E+21 0.49351E-04 0.13921E+21 0.49351E-04
 0.13921E+21 0.49351E-04 0.18925E+24 0.67093E-01 0.12022E+25 0.42622E+00
         0.00000E+00
 76  574.21    6.07 0.48132E+00 1584.219 0.13250E+25 0.46966E+00 1578.846  0.0000
         0.13250E+21 0.46966E-04 0.13250E+21 0.46966E-04 0.13250E+21 0.46966E-04
 0.13250E+21 0.46966E-04 0.18013E+24 0.63850E-01 0.11443E+25 0.40562E+00
         0.00000E+00
 77  580.27    6.03 0.45807E+00 1573.501 0.12614E+25 0.44697E+00 1568.386  0.0000
         0.12614E+21 0.44697E-04 0.12614E+21 0.44697E-04 0.12614E+21 0.44697E-04
 0.12614E+21 0.44697E-04 0.17149E+24 0.60766E-01 0.10894E+25 0.38603E+00
         0.00000E+00
 78  586.30    5.99 0.43594E+00 1563.300 0.12007E+25 0.42538E+00 1558.437  0.0000
         0.12007E+21 0.42538E-04 0.12007E+21 0.42538E-04 0.12007E+21 0.42538E-04
 0.12007E+21 0.42538E-04 0.16323E+24 0.57831E-01 0.10370E+25 0.36738E+00
         0.00000E+00
 79  592.29    5.95 0.41488E+00 1553.592 0.11425E+25 0.40483E+00 1548.964  0.0000
         0.11425E+21 0.40483E-04 0.11425E+21 0.40483E-04 0.11425E+21 0.40483E-04
 0.11425E+21 0.40483E-04 0.15532E+24 0.55037E-01 0.98672E+24 0.34963E+00
         0.00000E+00
 80  598.25    5.92 0.39483E+00 1544.356 0.10877E+25 0.38527E+00 1539.950  0.0000
         0.10877E+21 0.38527E-04 0.10877E+21 0.38527E-04 0.10877E+21 0.38527E-04
 0.10877E+21 0.38527E-04 0.14788E+24 0.52378E-01 0.93941E+24 0.33274E+00
         0.00000E+00
 81  604.17    5.89 0.37576E+00 1535.564 0.10351E+25 0.36666E+00 1531.370  0.0000
         0.10351E+21 0.36666E-04 0.10351E+21 0.36666E-04 0.10351E+21 0.36666E-04
 0.10351E+21 0.36666E-04 0.14073E+24 0.49847E-01 0.89400E+24 0.31666E+00
         0.00000E+00
 82  610.06    5.86 0.35760E+00 1527.199 0.98537E+24 0.34894E+00 1523.205  0.0000
         0.98537E+20 0.34894E-04 0.98537E+20 0.34894E-04 0.98537E+20 0.34894E-04
 0.98537E+20 0.34894E-04 0.13396E+24 0.47438E-01 0.85101E+24 0.30136E+00
         0.00000E+00
 83  615.91    5.83 0.34033E+00 1519.237 0.93807E+24 0.33208E+00 1515.437  0.0000
         0.93807E+20 0.33208E-04 0.93807E+20 0.33208E-04 0.93807E+20 0.33208E-04
 0.93807E+20 0.33208E-04 0.12753E+24 0.45147E-01 0.81017E+24 0.28680E+00
         0.00000E+00
 84  621.74    5.80 0.32389E+00 1511.658 0.89280E+24 0.31604E+00 1507.976  0.0000
         0.89280E+20 0.31604E-04 0.89280E+20 0.31604E-04 0.89280E+20 0.31604E-04
 0.89280E+20 0.31604E-04 0.12138E+24 0.42965E-01 0.77107E+24 0.27295E+00
         0.00000E+00
 85  627.55    5.77 0.30824E+00 1504.223 0.84949E+24 0.30076E+00 1500.361  0.0000
         0.84949E+20 0.30077E-04 0.84949E+20 0.30077E-04 0.84949E+20 0.30077E-04
 0.84949E+20 0.30077E-04 0.11549E+24 0.40889E-01 0.73367E+24 0.25976E+00
         0.00000E+00
 86  633.32    5.74 0.29335E+00 1496.184 0.80885E+24 0.28623E+00 1492.053  0.0000
         0.80885E+20 0.28623E-04 0.80885E+20 0.28623E-04 0.80885E+20 0.28623E-04
 0.80885E+20 0.28623E-04 0.10996E+24 0.38913E-01 0.69857E+24 0.24720E+00
         0.00000E+00
 87  639.06    5.71 0.27918E+00 1487.955 0.76985E+24 0.27241E+00 1484.025  0.0000
         0.76985E+20 0.27241E-04 0.76985E+20 0.27241E-04 0.76985E+20 0.27241E-04
 0.76985E+20 0.27241E-04 0.10466E+24 0.37034E-01 0.66488E+24 0.23526E+00
         0.00000E+00
 88  644.77    5.68 0.26569E+00 1480.124 0.73273E+24 0.25925E+00 1476.387  0.0000
         0.73273E+20 0.25925E-04 0.73273E+20 0.25925E-04 0.73273E+20 0.25925E-04
 0.73273E+20 0.25925E-04 0.99615E+23 0.35245E-01 0.63283E+24 0.22390E+00
         0.00000E+00
 89  650.46    5.66 0.25285E+00 1472.671 0.69757E+24 0.24672E+00 1469.112  0.0000
         0.69757E+20 0.24672E-04 0.69757E+20 0.24672E-04 0.69757E+20 0.24672E-04
 0.69757E+20 0.24672E-04 0.94834E+23 0.33542E-01 0.60245E+24 0.21308E+00
         0.00000E+00
 90  656.11    5.63 0.24064E+00 1465.577 0.66403E+24 0.23479E+00 1462.185  0.0000
         0.66403E+20 0.23479E-04 0.66403E+20 0.23479E-04 0.66403E+20 0.23479E-04
 0.66403E+20 0.23479E-04 0.90275E+23 0.31920E-01 0.57349E+24 0.20278E+00
         0.00000E+00
 91  661.75    5.61 0.22901E+00 1458.825 0.63179E+24 0.22346E+00 1455.599  0.0000
         0.63179E+20 0.22346E-04 0.63179E+20 0.22346E-04 0.63179E+20 0.22346E-04
 0.63179E+20 0.22346E-04 0.85891E+23 0.30379E-01 0.54564E+24 0.19299E+00
         0.00000E+00
 92  667.35    5.58 0.21795E+00 1452.401 0.60140E+24 0.21266E+00 1449.332  0.0000
         0.60140E+20 0.21266E-04 0.60140E+20 0.21266E-04 0.60140E+20 0.21266E-04
 0.60140E+20 0.21266E-04 0.81760E+23 0.28911E-01 0.51940E+24 0.18366E+00
         0.00000E+00
 93  672.93    5.56 0.20742E+00 1446.289 0.57260E+24 0.20238E+00 1443.365  0.0000
         0.57260E+20 0.20238E-04 0.57260E+20 0.20238E-04 0.57260E+20 0.20238E-04
 0.57260E+20 0.20238E-04 0.77845E+23 0.27514E-01 0.49452E+24 0.17479E+00
         0.00000E+00
 94  678.50    5.54 0.19740E+00 1440.469 0.54478E+24 0.19260E+00 1437.686  0.0000
         0.54478E+20 0.19260E-04 0.54478E+20 0.19260E-04 0.54478E+20 0.19260E-04
 0.54478E+20 0.19260E-04 0.74063E+23 0.26185E-01 0.47050E+24 0.16634E+00
         0.00000E+00
 95  684.04    5.52 0.18786E+00 1434.933 0.51847E+24 0.18330E+00 1432.190  0.0000
         0.51847E+20 0.18330E-04 0.51847E+20 0.18330E-04 0.51847E+20 0.18330E-04
 0.51847E+20 0.18330E-04 0.70485E+23 0.24920E-01 0.44777E+24 0.15831E+00
         0.00000E+00
 96  689.55    5.50 0.17878E+00 1429.300 0.49382E+24 0.17444E+00 1426.413  0.0000
         0.49382E+20 0.17444E-04 0.49382E+20 0.17444E-04 0.49382E+20 0.17444E-04
 0.49382E+20 0.17444E-04 0.67135E+23 0.23716E-01 0.42649E+24 0.15066E+00
         0.00000E+00
 97  695.05    5.48 0.17015E+00 1423.492 0.46992E+24 0.16602E+00 1420.661  0.0000
         0.46992E+20 0.16602E-04 0.46992E+20 0.16602E-04 0.46992E+20 0.16602E-04
 0.46992E+20 0.16602E-04 0.63885E+23 0.22570E-01 0.40584E+24 0.14338E+00
         0.00000E+00
 98  700.53    5.46 0.16193E+00 1417.854 0.44723E+24 0.15800E+00 1415.161  0.0000
         0.44723E+20 0.15800E-04 0.44723E+20 0.15800E-04 0.44723E+20 0.15800E-04
 0.44723E+20 0.15800E-04 0.60801E+23 0.21480E-01 0.38625E+24 0.13646E+00
         0.00000E+00
 99  705.99    5.44 0.15410E+00 1412.490 0.42582E+24 0.15037E+00 1409.927  0.0000
         0.42582E+20 0.15037E-04 0.42582E+20 0.15037E-04 0.42582E+20 0.15037E-04
 0.42582E+20 0.15037E-04 0.57891E+23 0.20443E-01 0.36776E+24 0.12987E+00
         0.00000E+00
100  711.42    5.42 0.14666E+00 1407.381 0.40513E+24 0.14310E+00 1404.942  0.0000
         0.40513E+20 0.14310E-04 0.40513E+20 0.14310E-04 0.40513E+20 0.14310E-04
 0.40513E+20 0.14310E-04 0.55077E+23 0.19455E-01 0.34989E+24 0.12359E+00
         0.00000E+00
101  716.84    5.40 0.13957E+00 1402.523 0.38559E+24 0.13619E+00 1400.200  0.0000
         0.38559E+20 0.13619E-04 0.38559E+20 0.13619E-04 0.38559E+20 0.13619E-04
 0.38559E+20 0.13619E-04 0.52421E+23 0.18514E-01 0.33302E+24 0.11762E+00
         0.00000E+00
102  722.24    5.38 0.13283E+00 1397.899 0.36705E+24 0.12961E+00 1395.689  0.0000
         0.36705E+20 0.12961E-04 0.36705E+20 0.12961E-04 0.36705E+20 0.12961E-04
 0.36705E+20 0.12961E-04 0.49900E+23 0.17620E-01 0.31700E+24 0.11194E+00
         0.00000E+00
103  727.62    5.37 0.12641E+00 1393.499 0.34944E+24 0.12335E+00 1391.396  0.0000
         0.34944E+20 0.12335E-04 0.34944E+20 0.12335E-04 0.34944E+20 0.12335E-04
 0.34944E+20 0.12335E-04 0.47506E+23 0.16769E-01 0.30179E+24 0.10653E+00
         0.00000E+00
104  732.99    5.36 0.12031E+00 1389.310 0.33274E+24 0.11739E+00 1387.307  0.0000
         0.33274E+20 0.11739E-04 0.33274E+20 0.11739E-04 0.33274E+20 0.11739E-04
 0.33274E+20 0.11739E-04 0.45236E+23 0.15959E-01 0.28737E+24 0.10138E+00
         0.00000E+00
105  738.35    5.34 0.11449E+00 1385.321 0.31656E+24 0.11172E+00 1383.402  0.0000
         0.31656E+20 0.11172E-04 0.31656E+20 0.11172E-04 0.31656E+20 0.11172E-04
 0.31656E+20 0.11172E-04 0.43037E+23 0.15188E-01 0.27340E+24 0.96484E-01
         0.00000E+00
106  743.69    5.32 0.10896E+00 1381.471 0.30129E+24 0.10632E+00 1379.567  0.0000
         0.30129E+20 0.10632E-04 0.30129E+20 0.10632E-04 0.30129E+20 0.10632E-04
 0.30129E+20 0.10632E-04 0.40960E+23 0.14454E-01 0.26021E+24 0.91822E-01
         0.00000E+00
107  749.01    5.31 0.10370E+00 1377.598 0.28684E+24 0.10118E+00 1375.663  0.0000
         0.28684E+20 0.10118E-04 0.28684E+20 0.10118E-04 0.28684E+20 0.10118E-04
 0.28684E+20 0.10118E-04 0.38996E+23 0.13756E-01 0.24773E+24 0.87385E-01
         0.00000E+00
108  754.32    5.30 0.98689E-01 1373.747 0.27292E+24 0.96295E-01 1371.908  0.0000
         0.27292E+20 0.96295E-05 0.27292E+20 0.96295E-05 0.27292E+20 0.96295E-05
 0.27292E+20 0.96295E-05 0.37103E+23 0.13091E-01 0.23571E+24 0.83165E-01
         0.00000E+00
109  759.62    5.28 0.93921E-01 1370.083 0.25982E+24 0.91644E-01 1368.333  0.0000
         0.25982E+20 0.91644E-05 0.25982E+20 0.91644E-05 0.25982E+20 0.91644E-05
 0.25982E+20 0.91644E-05 0.35322E+23 0.12459E-01 0.22439E+24 0.79148E-01
         0.00000E+00
110  764.90    5.27 0.89383E-01 1366.595 0.24733E+24 0.87214E-01 1364.927  0.0000
         0.24733E+20 0.87214E-05 0.24733E+20 0.87214E-05 0.24733E+20 0.87214E-05
 0.24733E+20 0.87214E-05 0.33624E+23 0.11857E-01 0.21360E+24 0.75322E-01
         0.00000E+00
111  770.18    5.26 0.85065E-01 1363.276 0.23539E+24 0.83001E-01 1361.689  0.0000
         0.23539E+20 0.83001E-05 0.23539E+20 0.83001E-05 0.23539E+20 0.83001E-05
 0.23539E+20 0.83001E-05 0.32001E+23 0.11284E-01 0.20329E+24 0.71684E-01
         0.00000E+00
112  775.44    5.25 0.80955E-01 1360.117 0.22403E+24 0.78991E-01 1358.607  0.0000
         0.22403E+20 0.78991E-05 0.22403E+20 0.78991E-05 0.22403E+20 0.78991E-05
 0.22403E+20 0.78991E-05 0.30457E+23 0.10739E-01 0.19348E+24 0.68220E-01
         0.00000E+00
113  780.68    5.24 0.77044E-01 1357.111 0.21326E+24 0.75175E-01 1355.674  0.0000
         0.21326E+20 0.75175E-05 0.21326E+20 0.75175E-05 0.21326E+20 0.75175E-05
 0.21326E+20 0.75175E-05 0.28993E+23 0.10220E-01 0.18418E+24 0.64925E-01
         0.00000E+00
114  785.92    5.23 0.73322E-01 1354.249 0.20299E+24 0.71545E-01 1352.883  0.0000
         0.20299E+20 0.71545E-05 0.20299E+20 0.71545E-05 0.20299E+20 0.71545E-05
 0.20299E+20 0.71545E-05 0.27597E+23 0.97266E-02 0.17531E+24 0.61790E-01
         0.00000E+00
115  791.15    5.22 0.69780E-01 1351.526 0.19322E+24 0.68089E-01 1350.227  0.0000
         0.19322E+20 0.68089E-05 0.19322E+20 0.68089E-05 0.19322E+20 0.68089E-05
 0.19322E+20 0.68089E-05 0.26268E+23 0.92568E-02 0.16687E+24 0.58805E-01
         0.00000E+00
116  796.37    5.21 0.66409E-01 1348.935 0.18390E+24 0.64800E-01 1347.685  0.0000
         0.18390E+20 0.64800E-05 0.18390E+20 0.64800E-05 0.18390E+20 0.64800E-05
 0.18390E+20 0.64800E-05 0.25001E+23 0.88095E-02 0.15883E+24 0.55964E-01
         0.00000E+00
117  801.58    5.20 0.63200E-01 1346.407 0.17502E+24 0.61668E-01 1345.154  0.0000
         0.17502E+20 0.61668E-05 0.17502E+20 0.61668E-05 0.17502E+20 0.61668E-05
 0.17502E+20 0.61668E-05 0.23794E+23 0.83837E-02 0.15116E+24 0.53259E-01
         0.00000E+00
118  806.78    5.19 0.60147E-01 1343.902 0.16661E+24 0.58689E-01 1342.694  0.0000
         0.16661E+20 0.58689E-05 0.16661E+20 0.58689E-05 0.16661E+20 0.58689E-05
 0.16661E+20 0.58689E-05 0.22650E+23 0.79787E-02 0.14389E+24 0.50686E-01
         0.00000E+00
119  811.97    5.18 0.57241E-01 1341.496 0.15857E+24 0.55853E-01 1340.347  0.0000
         0.15857E+20 0.55853E-05 0.15857E+20 0.55853E-05 0.15857E+20 0.55853E-05
 0.15857E+20 0.55853E-05 0.21558E+23 0.75933E-02 0.13695E+24 0.48238E-01
         0.00000E+00
120  817.15    5.17 0.54476E-01 1339.207 0.15090E+24 0.53154E-01 1338.113  0.0000
         0.15090E+20 0.53154E-05 0.15090E+20 0.53154E-05 0.15090E+20 0.53154E-05
 0.15090E+20 0.53154E-05 0.20515E+23 0.72263E-02 0.13033E+24 0.45907E-01
         0.00000E+00
121  822.33    5.17 0.51844E-01 1337.028 0.14367E+24 0.50588E-01 1335.989  0.0000
         0.14367E+20 0.50588E-05 0.14367E+20 0.50588E-05 0.14367E+20 0.50588E-05
 0.14367E+20 0.50588E-05 0.19532E+23 0.68774E-02 0.12408E+24 0.43690E-01
         0.00000E+00
122  827.50    5.16 0.49339E-01 1334.954 0.13674E+24 0.48144E-01 1333.964  0.0000
         0.13674E+20 0.48144E-05 0.13674E+20 0.48144E-05 0.13674E+20 0.48144E-05
 0.13674E+20 0.48144E-05 0.18590E+23 0.65452E-02 0.11810E+24 0.41580E-01
         0.00000E+00
123  832.66    5.15 0.46956E-01 1332.980 0.13013E+24 0.45817E-01 1332.037  0.0000
         0.13013E+20 0.45817E-05 0.13013E+20 0.45817E-05 0.13013E+20 0.45817E-05
 0.13013E+20 0.45817E-05 0.17691E+23 0.62288E-02 0.11239E+24 0.39570E-01
         0.00000E+00
124  837.81    5.15 0.44687E-01 1331.103 0.12390E+24 0.43603E-01 1330.204  0.0000
         0.12390E+20 0.43603E-05 0.12390E+20 0.43603E-05 0.12390E+20 0.43603E-05
 0.12390E+20 0.43603E-05 0.16845E+23 0.59278E-02 0.10701E+24 0.37657E-01
         0.00000E+00
125  842.96    5.14 0.42528E-01 1329.315 0.11791E+24 0.41496E-01 1328.460  0.0000
         0.11791E+20 0.41496E-05 0.11791E+20 0.41496E-05 0.11791E+20 0.41496E-05
 0.11791E+20 0.41496E-05 0.16030E+23 0.56414E-02 0.10183E+24 0.35838E-01
         0.00000E+00
126  848.10    5.13 0.40474E-01 1327.613 0.11221E+24 0.39492E-01 1326.800  0.0000
         0.11221E+20 0.39492E-05 0.11221E+20 0.39492E-05 0.11221E+20 0.39492E-05
 0.11221E+20 0.39492E-05 0.15255E+23 0.53690E-02 0.96912E+23 0.34107E-01
         0.00000E+00
127  853.23    5.13 0.38518E-01 1325.986 0.10682E+24 0.37584E-01 1325.198  0.0000
         0.10682E+20 0.37584E-05 0.10682E+20 0.37584E-05 0.10682E+20 0.37584E-05
 0.10682E+20 0.37584E-05 0.14522E+23 0.51096E-02 0.92254E+23 0.32460E-01
         0.00000E+00
128  858.36    5.13 0.36657E-01 1324.405 0.10169E+24 0.35768E-01 1323.633  0.0000
         0.10169E+20 0.35768E-05 0.10169E+20 0.35768E-05 0.10169E+20 0.35768E-05
 0.10169E+20 0.35768E-05 0.13825E+23 0.48627E-02 0.87828E+23 0.30891E-01
         0.00000E+00
129  863.49    5.12 0.34886E-01 1322.868 0.96780E+23 0.34041E-01 1322.134  0.0000
         0.96780E+19 0.34041E-05 0.96780E+19 0.34041E-05 0.96780E+19 0.34041E-05
 0.96780E+19 0.34041E-05 0.13157E+23 0.46278E-02 0.83584E+23 0.29399E-01
         0.00000E+00
130  868.61    5.11 0.33201E-01 1321.406 0.92098E+23 0.32396E-01 1320.707  0.0000
         0.92098E+19 0.32396E-05 0.92098E+19 0.32396E-05 0.92098E+19 0.32396E-05
 0.92098E+19 0.32396E-05 0.12521E+23 0.44043E-02 0.79541E+23 0.27979E-01
         0.00000E+00
131  873.72    5.11 0.31597E-01 1320.015 0.87667E+23 0.30831E-01 1319.350  0.0000
         0.87667E+19 0.30831E-05 0.87667E+19 0.30831E-05 0.87667E+19 0.30831E-05
 0.87667E+19 0.30831E-05 0.11918E+23 0.41914E-02 0.75713E+23 0.26627E-01
         0.00000E+00
132  878.83    5.11 0.30071E-01 1318.691 0.83455E+23 0.29342E-01 1318.058  0.0000
         0.83455E+19 0.29342E-05 0.83455E+19 0.29342E-05 0.83455E+19 0.29342E-05
 0.83455E+19 0.29342E-05 0.11346E+23 0.39890E-02 0.72076E+23 0.25341E-01
         0.00000E+00
133  883.94    5.10 0.28618E-01 1317.430 0.79424E+23 0.27925E-01 1316.829  0.0000
         0.79424E+19 0.27925E-05 0.79424E+19 0.27925E-05 0.79424E+19 0.27925E-05
 0.79424E+19 0.27925E-05 0.10798E+23 0.37964E-02 0.68594E+23 0.24117E-01
         0.00000E+00
134  889.04    5.10 0.27235E-01 1316.231 0.75588E+23 0.26575E-01 1315.659  0.0000
         0.75588E+19 0.26575E-05 0.75588E+19 0.26575E-05 0.75588E+19 0.26575E-05
 0.75588E+19 0.26575E-05 0.10276E+23 0.36129E-02 0.65281E+23 0.22952E-01
         0.00000E+00
135  894.14    5.10 0.25919E-01 1315.090 0.71974E+23 0.25291E-01 1314.544  0.0000
         0.71974E+19 0.25291E-05 0.71974E+19 0.25291E-05 0.71974E+19 0.25291E-05
 0.71974E+19 0.25291E-05 0.97848E+22 0.34383E-02 0.62160E+23 0.21843E-01
         0.00000E+00
136  899.23    5.09 0.24667E-01 1314.004 0.68496E+23 0.24070E-01 1313.486  0.0000
         0.68496E+19 0.24070E-05 0.68496E+19 0.24070E-05 0.68496E+19 0.24070E-05
 0.68496E+19 0.24070E-05 0.93120E+22 0.32723E-02 0.59156E+23 0.20788E-01
         0.00000E+00
137  904.32    5.09 0.23476E-01 1312.970 0.65183E+23 0.22907E-01 1312.476  0.0000
         0.65183E+19 0.22907E-05 0.65183E+19 0.22907E-05 0.65183E+19 0.22907E-05
 0.65183E+19 0.22907E-05 0.88617E+22 0.31142E-02 0.56296E+23 0.19784E-01
         0.00000E+00
138  909.41    5.08 0.22341E-01 1311.979 0.62046E+23 0.21800E-01 1311.499  0.0000
         0.62046E+19 0.21800E-05 0.62046E+19 0.21800E-05 0.62046E+19 0.21800E-05
 0.62046E+19 0.21800E-05 0.84352E+22 0.29637E-02 0.53586E+23 0.18828E-01
         0.00000E+00
139  914.49    5.08 0.21262E-01 1311.020 0.59085E+23 0.20748E-01 1310.560  0.0000
         0.59085E+19 0.20748E-05 0.59085E+19 0.20748E-05 0.59085E+19 0.20748E-05
 0.59085E+19 0.20748E-05 0.80326E+22 0.28206E-02 0.51029E+23 0.17919E-01
         0.00000E+00
140  919.58    5.08 0.20235E-01 1310.103 0.56227E+23 0.19745E-01 1309.666  0.0000
         0.56227E+19 0.19745E-05 0.56227E+19 0.19745E-05 0.56227E+19 0.19745E-05
 0.56227E+19 0.19745E-05 0.76441E+22 0.26844E-02 0.48561E+23 0.17053E-01
         0.00000E+00
141  924.66    5.08 0.19257E-01 1309.230 0.53503E+23 0.18791E-01 1308.814  0.0000
         0.53503E+19 0.18791E-05 0.53503E+19 0.18791E-05 0.53503E+19 0.18791E-05
 0.53503E+19 0.18791E-05 0.72737E+22 0.25547E-02 0.46208E+23 0.16229E-01
         0.00000E+00
142  929.73    5.07 0.18327E-01 1308.400 0.50934E+23 0.17883E-01 1308.005  0.0000
         0.50934E+19 0.17883E-05 0.50934E+19 0.17883E-05 0.50934E+19 0.17883E-05
 0.50934E+19 0.17883E-05 0.69244E+22 0.24313E-02 0.43989E+23 0.15445E-01
         0.00000E+00
143  934.81    5.07 0.17442E-01 1307.611 0.48484E+23 0.17019E-01 1307.234  0.0000
         0.48484E+19 0.17019E-05 0.48484E+19 0.17019E-05 0.48484E+19 0.17019E-05
 0.48484E+19 0.17019E-05 0.65914E+22 0.23138E-02 0.41873E+23 0.14699E-01
         0.00000E+00
144  939.88    5.07 0.16599E-01 1306.859 0.46147E+23 0.16197E-01 1306.500  0.0000
         0.46147E+19 0.16197E-05 0.46147E+19 0.16197E-05 0.46147E+19 0.16197E-05
 0.46147E+19 0.16197E-05 0.62737E+22 0.22019E-02 0.39855E+23 0.13988E-01
         0.00000E+00
145  944.95    5.07 0.15797E-01 1306.143 0.43905E+23 0.15414E-01 1305.802  0.0000
         0.43905E+19 0.15414E-05 0.43905E+19 0.15414E-05 0.43905E+19 0.15414E-05
 0.43905E+19 0.15414E-05 0.59689E+22 0.20956E-02 0.37918E+23 0.13313E-01
         0.00000E+00
146  950.02    5.06 0.15034E-01 1305.463 0.41796E+23 0.14670E-01 1305.139  0.0000
         0.41796E+19 0.14670E-05 0.41796E+19 0.14670E-05 0.41796E+19 0.14670E-05
 0.41796E+19 0.14670E-05 0.56821E+22 0.19944E-02 0.36097E+23 0.12670E-01
         0.00000E+00
147  955.08    5.06 0.14307E-01 1304.815 0.39786E+23 0.13962E-01 1304.507  0.0000
         0.39786E+19 0.13962E-05 0.39786E+19 0.13962E-05 0.39786E+19 0.13962E-05
 0.39786E+19 0.13962E-05 0.54090E+22 0.18981E-02 0.34362E+23 0.12058E-01
         0.00000E+00
148  960.14    5.06 0.13616E-01 1304.198 0.37867E+23 0.13287E-01 1303.902  0.0000
         0.37867E+19 0.13287E-05 0.37867E+19 0.13287E-05 0.37867E+19 0.13287E-05
 0.37867E+19 0.13287E-05 0.51480E+22 0.18064E-02 0.32704E+23 0.11475E-01
         0.00000E+00
149  965.20    5.06 0.12958E-01 1303.605 0.36063E+23 0.12645E-01 1303.322  0.0000
         0.36063E+19 0.12645E-05 0.36063E+19 0.12645E-05 0.36063E+19 0.12645E-05
 0.36063E+19 0.12645E-05 0.49027E+22 0.17191E-02 0.31146E+23 0.10921E-01
         0.00000E+00
150  970.27    5.06 0.12332E-01 1303.038 0.34327E+23 0.12034E-01 1302.767  0.0000
         0.34327E+19 0.12034E-05 0.34327E+19 0.12034E-05 0.34327E+19 0.12034E-05
 0.34327E+19 0.12034E-05 0.46667E+22 0.16361E-02 0.29646E+23 0.10393E-01
         0.00000E+00
151  975.33    5.06 0.11737E-01 1302.497 0.32655E+23 0.11453E-01 1302.240  0.0000
         0.32655E+19 0.11453E-05 0.32655E+19 0.11453E-05 0.32655E+19 0.11453E-05
 0.32655E+19 0.11453E-05 0.44394E+22 0.15570E-02 0.28202E+23 0.98914E-02
         0.00000E+00
152  980.39    5.05 0.11170E-01 1301.983 0.31069E+23 0.10900E-01 1301.738  0.0000
         0.31069E+19 0.10900E-05 0.31069E+19 0.10900E-05 0.31069E+19 0.10900E-05
 0.31069E+19 0.10900E-05 0.42239E+22 0.14818E-02 0.26833E+23 0.94137E-02
         0.00000E+00
153  985.44    5.05 0.10630E-01 1301.494 0.29558E+23 0.10373E-01 1301.261  0.0000
         0.29558E+19 0.10373E-05 0.29558E+19 0.10373E-05 0.29558E+19 0.10373E-05
 0.29558E+19 0.10373E-05 0.40184E+22 0.14102E-02 0.25528E+23 0.89586E-02
         0.00000E+00
154  990.49    5.06 0.10116E-01 1301.028 0.28178E+23 0.98719E-02 1300.806  0.0000
         0.28178E+19 0.98719E-06 0.28178E+19 0.98719E-06 0.28178E+19 0.98719E-06
 0.28178E+19 0.98719E-06 0.38308E+22 0.13421E-02 0.24336E+23 0.85259E-02
         0.00000E+00
155  995.55    5.05 0.96277E-02 1300.585 0.26803E+23 0.93950E-02 1300.374  0.0000
         0.26803E+19 0.93950E-06 0.26803E+19 0.93950E-06 0.26803E+19 0.93950E-06
 0.26803E+19 0.93950E-06 0.36439E+22 0.12772E-02 0.23149E+23 0.81140E-02
         0.00000E+00
156 1000.60    5.05 0.91626E-02 1300.163 0.25513E+23 0.89410E-02 1299.962  0.0000
         0.25513E+19 0.89410E-06 0.25513E+19 0.89410E-06 0.25513E+19 0.89410E-06
 0.25513E+19 0.89410E-06 0.34685E+22 0.12155E-02 0.22034E+23 0.77219E-02
         0.00000E+00
157 1005.65    5.05 0.87199E-02 1299.762 0.24281E+23 0.85091E-02 1299.571  0.0000
         0.24281E+19 0.85091E-06 0.24281E+19 0.85091E-06 0.24281E+19 0.85091E-06
 0.24281E+19 0.85091E-06 0.33010E+22 0.11568E-02 0.20971E+23 0.73489E-02
         0.00000E+00
158 1010.70    5.05 0.82986E-02 1299.380 0.23112E+23 0.80981E-02 1299.198  0.0000
         0.23112E+19 0.80981E-06 0.23112E+19 0.80981E-06 0.23112E+19 0.80981E-06
 0.23112E+19 0.80981E-06 0.31421E+22 0.11009E-02 0.19961E+23 0.69939E-02
         0.00000E+00
159 1015.75    5.05 0.78977E-02 1299.015 0.21998E+23 0.77068E-02 1298.841  0.0000
         0.21998E+19 0.77068E-06 0.21998E+19 0.77068E-06 0.21998E+19 0.77068E-06
 0.21998E+19 0.77068E-06 0.29906E+22 0.10477E-02 0.18998E+23 0.66560E-02
         0.00000E+00
160 1020.80    5.05 0.75162E-02 1298.667 0.20940E+23 0.73347E-02 1298.501  0.0000
         0.20940E+19 0.73347E-06 0.20940E+19 0.73347E-06 0.20940E+19 0.73347E-06
 0.20940E+19 0.73347E-06 0.28468E+22 0.99715E-03 0.18085E+23 0.63346E-02
         0.00000E+00
161 1025.85    5.05 0.71530E-02 1298.334 0.19927E+23 0.69804E-02 1298.177  0.0000
         0.19927E+19 0.69804E-06 0.19927E+19 0.69804E-06 0.19927E+19 0.69804E-06
 0.19927E+19 0.69804E-06 0.27091E+22 0.94899E-03 0.17210E+23 0.60287E-02
         0.00000E+00
162 1030.90    5.05 0.68075E-02 1298.018 0.18971E+23 0.66433E-02 1297.868  0.0000
         0.18971E+19 0.66433E-06 0.18971E+19 0.66433E-06 0.18971E+19 0.66433E-06
 0.18971E+19 0.66433E-06 0.25791E+22 0.90316E-03 0.16384E+23 0.57375E-02
         0.00000E+00
163 1035.95    5.05 0.64786E-02 1297.718 0.18056E+23 0.63222E-02 1297.574  0.0000
         0.18056E+19 0.63222E-06 0.18056E+19 0.63222E-06 0.18056E+19 0.63222E-06
 0.18056E+19 0.63222E-06 0.24547E+22 0.85950E-03 0.15594E+23 0.54602E-02
         0.00000E+00
164 1041.00    5.05 0.61656E-02 1297.431 0.17186E+23 0.60166E-02 1297.295  0.0000
         0.17186E+19 0.60166E-06 0.17186E+19 0.60166E-06 0.17186E+19 0.60166E-06
 0.17186E+19 0.60166E-06 0.23364E+22 0.81795E-03 0.14842E+23 0.51962E-02
         0.00000E+00
165 1046.04    5.05 0.58677E-02 1297.159 0.16357E+23 0.57259E-02 1297.029  0.0000
         0.16357E+19 0.57259E-06 0.16357E+19 0.57259E-06 0.16357E+19 0.57259E-06
 0.16357E+19 0.57259E-06 0.22237E+22 0.77844E-03 0.14126E+23 0.49452E-02
         0.00000E+00
166 1051.09    5.05 0.55842E-02 1296.899 0.15569E+23 0.54495E-02 1296.776  0.0000
         0.15569E+19 0.54495E-06 0.15569E+19 0.54495E-06 0.15569E+19 0.54495E-06
 0.15569E+19 0.54495E-06 0.21165E+22 0.74086E-03 0.13446E+23 0.47065E-02
         0.00000E+00
167 1056.14    5.05 0.53145E-02 1296.652 0.14820E+23 0.51864E-02 1296.535  0.0000
         0.14820E+19 0.51864E-06 0.14820E+19 0.51864E-06 0.14820E+19 0.51864E-06
 0.14820E+19 0.51864E-06 0.20147E+22 0.70509E-03 0.12799E+23 0.44792E-02
         0.00000E+00
168 1061.18    5.05 0.50577E-02 1296.417 0.14105E+23 0.49358E-02 1296.306  0.0000
         0.14105E+19 0.49358E-06 0.14105E+19 0.49358E-06 0.14105E+19 0.49358E-06
 0.14105E+19 0.49358E-06 0.19176E+22 0.67102E-03 0.12182E+23 0.42628E-02
         0.00000E+00
169 1066.23    5.05 0.48134E-02 1296.194 0.13427E+23 0.46973E-02 1296.087  0.0000
         0.13427E+19 0.46973E-06 0.13427E+19 0.46973E-06 0.13427E+19 0.46973E-06
 0.13427E+19 0.46973E-06 0.18254E+22 0.63860E-03 0.11596E+23 0.40569E-02
         0.00000E+00
170 1071.27    5.05 0.45808E-02 1295.980 0.12779E+23 0.44704E-02 1295.878  0.0000
         0.12779E+19 0.44704E-06 0.12779E+19 0.44704E-06 0.12779E+19 0.44704E-06
 0.12779E+19 0.44704E-06 0.17373E+22 0.60775E-03 0.11036E+23 0.38608E-02
         0.00000E+00
171 1076.32    5.04 0.43595E-02 1295.777 0.12162E+23 0.42543E-02 1295.680  0.0000
         0.12162E+19 0.42543E-06 0.12162E+19 0.42543E-06 0.12162E+19 0.42543E-06
 0.12162E+19 0.42543E-06 0.16534E+22 0.57838E-03 0.10504E+23 0.36743E-02
         0.00000E+00
172 1081.36    5.05 0.41489E-02 1295.583 0.11580E+23 0.40488E-02 1295.491  0.0000
         0.11580E+19 0.40488E-06 0.11580E+19 0.40488E-06 0.11580E+19 0.40488E-06
 0.11580E+19 0.40488E-06 0.15743E+22 0.55043E-03 0.10001E+23 0.34967E-02
         0.00000E+00
173 1086.41    5.04 0.39485E-02 1295.399 0.11016E+23 0.38533E-02 1295.312  0.0000
         0.11016E+19 0.38533E-06 0.11016E+19 0.38533E-06 0.11016E+19 0.38533E-06
 0.11016E+19 0.38533E-06 0.14976E+22 0.52385E-03 0.95140E+22 0.33279E-02
         0.00000E+00
174 1091.45    5.05 0.37577E-02 1295.224 0.10491E+23 0.36672E-02 1295.140  0.0000
         0.10491E+19 0.36672E-06 0.10491E+19 0.36672E-06 0.10491E+19 0.36672E-06
 0.10491E+19 0.36672E-06 0.14262E+22 0.49856E-03 0.90604E+22 0.31672E-02
         0.00000E+00
175 1096.50    5.04 0.35762E-02 1295.057 0.99805E+22 0.34900E-02 1294.977  0.0000
         0.99805E+18 0.34900E-06 0.99805E+18 0.34900E-06 0.99805E+18 0.34900E-06
 0.99805E+18 0.34900E-06 0.13569E+22 0.47447E-03 0.86197E+22 0.30141E-02
         0.00000E+00
176 1101.55    5.05 0.34034E-02 1294.897 0.95061E+22 0.33214E-02 1294.821  0.0000
         0.95061E+18 0.33214E-06 0.95061E+18 0.33214E-06 0.95061E+18 0.33214E-06
 0.95061E+18 0.33214E-06 0.12924E+22 0.45154E-03 0.82100E+22 0.28685E-02
         0.00000E+00
177 1106.59    5.05 0.32390E-02 1294.746 0.90435E+22 0.31609E-02 1294.675  0.0000
         0.90435E+18 0.31609E-06 0.90435E+18 0.31609E-06 0.90435E+18 0.31609E-06
 0.90435E+18 0.31609E-06 0.12295E+22 0.42973E-03 0.78104E+22 0.27299E-02
         0.00000E+00
178 1111.64    5.05 0.30825E-02 1294.603 0.86094E+22 0.30082E-02 1294.534  0.0000
         0.86094E+18 0.30082E-06 0.86094E+18 0.30082E-06 0.86094E+18 0.30082E-06
 0.86094E+18 0.30082E-06 0.11704E+22 0.40896E-03 0.74355E+22 0.25980E-02
         0.00000E+00
179 1116.68    5.05 0.29336E-02 1294.466 0.81927E+22 0.28630E-02 1294.401  0.0000
         0.81927E+18 0.28630E-06 0.81927E+18 0.28630E-06 0.81927E+18 0.28630E-06
 0.81927E+18 0.28630E-06 0.11138E+22 0.38922E-03 0.70757E+22 0.24726E-02
         0.00000E+00
180 1121.73    5.04 0.27918E-02 1294.335 0.77967E+22 0.27247E-02 1294.273  0.0000
         0.77967E+18 0.27247E-06 0.77967E+18 0.27247E-06 0.77967E+18 0.27247E-06
 0.77967E+18 0.27247E-06 0.10600E+22 0.37042E-03 0.67337E+22 0.23532E-02
         0.00000E+00
181 1126.77    5.05 0.26570E-02 1294.211 0.74256E+22 0.25931E-02 1294.152  0.0000
         0.74256E+18 0.25931E-06 0.74256E+18 0.25931E-06 0.74256E+18 0.25931E-06
 0.74256E+18 0.25931E-06 0.10095E+22 0.35253E-03 0.64131E+22 0.22395E-02
         0.00000E+00
182 1131.82    5.05 0.25286E-02 1294.093 0.70674E+22 0.24678E-02 1294.037  0.0000
         0.70674E+18 0.24678E-06 0.70674E+18 0.24678E-06 0.70674E+18 0.24678E-06
 0.70674E+18 0.24678E-06 0.96081E+21 0.33550E-03 0.61038E+22 0.21313E-02
         0.00000E+00
183 1136.87    5.04 0.24064E-02 1293.980 0.67218E+22 0.23486E-02 1293.927  0.0000
         0.67218E+18 0.23486E-06 0.67218E+18 0.23486E-06 0.67218E+18 0.23486E-06
 0.67218E+18 0.23486E-06 0.91383E+21 0.31929E-03 0.58053E+22 0.20284E-02
         0.00000E+00
184 1141.91    5.05 0.22902E-02 1293.873 0.63993E+22 0.22351E-02 1293.822  0.0000
         0.63993E+18 0.22351E-06 0.63993E+18 0.22351E-06 0.63993E+18 0.22351E-06
 0.63993E+18 0.22351E-06 0.86999E+21 0.30386E-03 0.55268E+22 0.19303E-02
         0.00000E+00
185 1146.96    5.05 0.21795E-02 1293.771 0.60942E+22 0.21271E-02 1293.723  0.0000
         0.60942E+18 0.21271E-06 0.60942E+18 0.21271E-06 0.60942E+18 0.21271E-06
 0.60942E+18 0.21271E-06 0.82851E+21 0.28918E-03 0.52633E+22 0.18371E-02
         0.00000E+00
186 1152.01    5.05 0.20742E-02 1293.675 0.57977E+22 0.20244E-02 1293.629  0.0000
         0.57977E+18 0.20244E-06 0.57977E+18 0.20244E-06 0.57977E+18 0.20244E-06
 0.57977E+18 0.20244E-06 0.78820E+21 0.27521E-03 0.50072E+22 0.17483E-02
         0.00000E+00
187 1157.05    5.05 0.19740E-02 1293.583 0.55238E+22 0.19266E-02 1293.538  0.0000
         0.55238E+18 0.19266E-06 0.55238E+18 0.19266E-06 0.55238E+18 0.19266E-06
 0.55238E+18 0.19266E-06 0.75096E+21 0.26192E-03 0.47706E+22 0.16639E-02
         0.00000E+00
188 1162.10    5.04 0.18787E-02 1293.494 0.52487E+22 0.18336E-02 1293.453  0.0000
         0.52487E+18 0.18336E-06 0.52487E+18 0.18336E-06 0.52487E+18 0.18336E-06
 0.52487E+18 0.18336E-06 0.71355E+21 0.24927E-03 0.45330E+22 0.15835E-02
         0.00000E+00
189 1167.15    5.05 0.17879E-02 1293.411 0.50035E+22 0.17449E-02 1293.371  0.0000
         0.50035E+18 0.17449E-06 0.50035E+18 0.17449E-06 0.50035E+18 0.17449E-06
 0.50035E+18 0.17449E-06 0.68022E+21 0.23722E-03 0.43213E+22 0.15070E-02
         0.00000E+00
190 1172.20    5.05 0.17015E-02 1293.331 0.47616E+22 0.16606E-02 1293.293  0.0000
         0.47616E+18 0.16606E-06 0.47616E+18 0.16606E-06 0.47616E+18 0.16606E-06
 0.47616E+18 0.16606E-06 0.64734E+21 0.22576E-03 0.41124E+22 0.14342E-02
         0.00000E+00
191 1177.25    5.04 0.16193E-02 1293.255 0.45254E+22 0.15804E-02 1293.220  0.0000
         0.45254E+18 0.15804E-06 0.45254E+18 0.15804E-06 0.45254E+18 0.15804E-06
 0.45254E+18 0.15804E-06 0.61523E+21 0.21486E-03 0.39084E+22 0.13649E-02
         0.00000E+00
192 1182.29    5.06 0.15411E-02 1293.184 0.43171E+22 0.15041E-02 1293.149  0.0000
         0.43171E+18 0.15041E-06 0.43171E+18 0.15041E-06 0.43171E+18 0.15041E-06
 0.43171E+18 0.15041E-06 0.58691E+21 0.20448E-03 0.37285E+22 0.12990E-02
         0.00000E+00
193 1187.35    5.05 0.14666E-02 1293.114 0.41011E+22 0.14314E-02 1293.083  0.0000
         0.41012E+18 0.14314E-06 0.41012E+18 0.14314E-06 0.41012E+18 0.14314E-06
 0.41012E+18 0.14314E-06 0.55755E+21 0.19460E-03 0.35420E+22 0.12362E-02
         0.00000E+00
194 1192.40    5.05 0.13958E-02 1293.050 0.39053E+22 0.13623E-02 1293.019  0.0000
         0.39053E+18 0.13623E-06 0.39053E+18 0.13623E-06 0.39053E+18 0.13623E-06
 0.39053E+18 0.13623E-06 0.53093E+21 0.18520E-03 0.33728E+22 0.11765E-02
         0.00000E+00
195 1197.44    5.06 0.13284E-02 1292.987 0.37242E+22 0.12965E-02 1292.958  0.0000
         0.37242E+18 0.12965E-06 0.37242E+18 0.12965E-06 0.37242E+18 0.12965E-06
 0.37242E+18 0.12965E-06 0.50630E+21 0.17626E-03 0.32164E+22 0.11197E-02
         0.00000E+00
196 1202.50    5.05 0.12642E-02 1292.929 0.35363E+22 0.12339E-02 1292.902  0.0000
         0.35363E+18 0.12339E-06 0.35363E+18 0.12339E-06 0.35363E+18 0.12339E-06
 0.35363E+18 0.12339E-06 0.48076E+21 0.16775E-03 0.30541E+22 0.10657E-02
         0.00000E+00
197 1207.55    5.05 0.12031E-02 1292.872 0.33663E+22 0.11743E-02 1292.845  0.0000
         0.33663E+18 0.11743E-06 0.33663E+18 0.11743E-06 0.33663E+18 0.11743E-06
 0.33663E+18 0.11743E-06 0.45765E+21 0.15964E-03 0.29073E+22 0.10141E-02
         0.00000E+00
198 1212.60    5.05 0.11450E-02 1292.818 0.32078E+22 0.11175E-02 1292.793  0.0000
         0.32078E+18 0.11175E-06 0.32078E+18 0.11175E-06 0.32078E+18 0.11175E-06
 0.32078E+18 0.11175E-06 0.43610E+21 0.15192E-03 0.27704E+22 0.96513E-03
         0.00000E+00
199 1217.65    5.06 0.10897E-02 1292.767 0.30537E+22 0.10635E-02 1292.744  0.0000
         0.30537E+18 0.10635E-06 0.30537E+18 0.10635E-06 0.30537E+18 0.10635E-06
 0.30537E+18 0.10635E-06 0.41515E+21 0.14459E-03 0.26373E+22 0.91851E-03
         0.00000E+00
200 1222.71    5.05 0.10370E-02 1292.719 0.29040E+22 0.10122E-02 1292.696  0.0000
         0.29040E+18 0.10122E-06 0.29040E+18 0.10122E-06 0.29040E+18 0.10122E-06
 0.29040E+18 0.10122E-06 0.39480E+21 0.13761E-03 0.25081E+22 0.87416E-03
         0.00000E+00
  200   3 0.10000E-01            : Nlayers, model & error limit, path  1
   1  200 1292.696  0.55594E+01  :     layer or path, emission temp, scale
   2  199 1292.744  0.55776E+01  :     layer or path, emission temp, scale
   3  198 1292.793  0.55867E+01  :     layer or path, emission temp, scale
   4  197 1292.845  0.56058E+01  :     layer or path, emission temp, scale
   5  196 1292.902  0.56115E+01  :     layer or path, emission temp, scale
   6  195 1292.958  0.56178E+01  :     layer or path, emission temp, scale
   7  194 1293.019  0.56331E+01  :     layer or path, emission temp, scale
   8  193 1293.083  0.56481E+01  :     layer or path, emission temp, scale
   9  192 1293.149  0.56573E+01  :     layer or path, emission temp, scale
  10  191 1293.220  0.56715E+01  :     layer or path, emission temp, scale
  11  190 1293.293  0.56754E+01  :     layer or path, emission temp, scale
  12  189 1293.371  0.56988E+01  :     layer or path, emission temp, scale
  13  188 1293.453  0.57090E+01  :     layer or path, emission temp, scale
  14  187 1293.538  0.57122E+01  :     layer or path, emission temp, scale
  15  186 1293.629  0.57306E+01  :     layer or path, emission temp, scale
  16  185 1293.723  0.57408E+01  :     layer or path, emission temp, scale
  17  184 1293.822  0.57529E+01  :     layer or path, emission temp, scale
  18  183 1293.927  0.57714E+01  :     layer or path, emission temp, scale
  19  182 1294.037  0.57763E+01  :     layer or path, emission temp, scale
  20  181 1294.152  0.57931E+01  :     layer or path, emission temp, scale
  21  180 1294.273  0.58060E+01  :     layer or path, emission temp, scale
  22  179 1294.401  0.58104E+01  :     layer or path, emission temp, scale
  23  178 1294.534  0.58304E+01  :     layer or path, emission temp, scale
  24  177 1294.675  0.58449E+01  :     layer or path, emission temp, scale
  25  176 1294.821  0.58556E+01  :     layer or path, emission temp, scale
  26  175 1294.977  0.58732E+01  :     layer or path, emission temp, scale
  27  174 1295.140  0.58841E+01  :     layer or path, emission temp, scale
  28  173 1295.312  0.58890E+01  :     layer or path, emission temp, scale
  29  172 1295.491  0.59111E+01  :     layer or path, emission temp, scale
  30  171 1295.680  0.59233E+01  :     layer or path, emission temp, scale
  31  170 1295.878  0.59367E+01  :     layer or path, emission temp, scale
  32  169 1296.087  0.59538E+01  :     layer or path, emission temp, scale
  33  168 1296.306  0.59649E+01  :     layer or path, emission temp, scale
  34  167 1296.535  0.59786E+01  :     layer or path, emission temp, scale
  35  166 1296.776  0.59807E+01  :     layer or path, emission temp, scale
  36  165 1297.029  0.60070E+01  :     layer or path, emission temp, scale
  37  164 1297.295  0.60208E+01  :     layer or path, emission temp, scale
  38  163 1297.574  0.60432E+01  :     layer or path, emission temp, scale
  39  162 1297.868  0.60450E+01  :     layer or path, emission temp, scale
  40  161 1298.177  0.60647E+01  :     layer or path, emission temp, scale
  41  160 1298.501  0.60734E+01  :     layer or path, emission temp, scale
  42  159 1298.841  0.60885E+01  :     layer or path, emission temp, scale
  43  158 1299.198  0.61152E+01  :     layer or path, emission temp, scale
  44  157 1299.571  0.61173E+01  :     layer or path, emission temp, scale
  45  156 1299.962  0.61392E+01  :     layer or path, emission temp, scale
  46  155 1300.374  0.61542E+01  :     layer or path, emission temp, scale
  47  154 1300.806  0.61650E+01  :     layer or path, emission temp, scale
  48  153 1301.261  0.61890E+01  :     layer or path, emission temp, scale
  49  152 1301.738  0.62007E+01  :     layer or path, emission temp, scale
  50  151 1302.240  0.62129E+01  :     layer or path, emission temp, scale
  51  150 1302.767  0.62323E+01  :     layer or path, emission temp, scale
  52  149 1303.322  0.62429E+01  :     layer or path, emission temp, scale
  53  148 1303.902  0.62653E+01  :     layer or path, emission temp, scale
  54  147 1304.507  0.62795E+01  :     layer or path, emission temp, scale
  55  146 1305.139  0.62904E+01  :     layer or path, emission temp, scale
  56  145 1305.802  0.63099E+01  :     layer or path, emission temp, scale
  57  144 1306.500  0.63260E+01  :     layer or path, emission temp, scale
  58  143 1307.234  0.63533E+01  :     layer or path, emission temp, scale
  59  142 1308.005  0.63599E+01  :     layer or path, emission temp, scale
  60  141 1308.814  0.63796E+01  :     layer or path, emission temp, scale
  61  140 1309.666  0.63965E+01  :     layer or path, emission temp, scale
  62  139 1310.560  0.64139E+01  :     layer or path, emission temp, scale
  63  138 1311.499  0.64267E+01  :     layer or path, emission temp, scale
  64  137 1312.476  0.64543E+01  :     layer or path, emission temp, scale
  65  136 1313.486  0.64630E+01  :     layer or path, emission temp, scale
  66  135 1314.544  0.64802E+01  :     layer or path, emission temp, scale
  67  134 1315.659  0.65099E+01  :     layer or path, emission temp, scale
  68  133 1316.829  0.65232E+01  :     layer or path, emission temp, scale
  69  132 1318.058  0.65315E+01  :     layer or path, emission temp, scale
  70  131 1319.350  0.65591E+01  :     layer or path, emission temp, scale
  71  130 1320.707  0.65818E+01  :     layer or path, emission temp, scale
  72  129 1322.134  0.65938E+01  :     layer or path, emission temp, scale
  73  128 1323.633  0.66147E+01  :     layer or path, emission temp, scale
  74  127 1325.198  0.66380E+01  :     layer or path, emission temp, scale
  75  126 1326.800  0.66517E+01  :     layer or path, emission temp, scale
  76  125 1328.460  0.66725E+01  :     layer or path, emission temp, scale
  77  124 1330.204  0.66971E+01  :     layer or path, emission temp, scale
  78  123 1332.037  0.67163E+01  :     layer or path, emission temp, scale
  79  122 1333.964  0.67407E+01  :     layer or path, emission temp, scale
  80  121 1335.989  0.67525E+01  :     layer or path, emission temp, scale
  81  120 1338.113  0.67745E+01  :     layer or path, emission temp, scale
  82  119 1340.347  0.68026E+01  :     layer or path, emission temp, scale
  83  118 1342.694  0.68128E+01  :     layer or path, emission temp, scale
  84  117 1345.154  0.68467E+01  :     layer or path, emission temp, scale
  85  116 1347.685  0.68656E+01  :     layer or path, emission temp, scale
  86  115 1350.227  0.68852E+01  :     layer or path, emission temp, scale
  87  114 1352.883  0.69043E+01  :     layer or path, emission temp, scale
  88  113 1355.674  0.69280E+01  :     layer or path, emission temp, scale
  89  112 1358.607  0.69516E+01  :     layer or path, emission temp, scale
  90  111 1361.689  0.69736E+01  :     layer or path, emission temp, scale
  91  110 1364.927  0.70040E+01  :     layer or path, emission temp, scale
  92  109 1368.333  0.70308E+01  :     layer or path, emission temp, scale
  93  108 1371.908  0.70395E+01  :     layer or path, emission temp, scale
  94  107 1375.663  0.70706E+01  :     layer or path, emission temp, scale
  95  106 1379.567  0.71059E+01  :     layer or path, emission temp, scale
  96  105 1383.402  0.71168E+01  :     layer or path, emission temp, scale
  97  104 1387.307  0.71524E+01  :     layer or path, emission temp, scale
  98  103 1391.396  0.71707E+01  :     layer or path, emission temp, scale
  99  102 1395.689  0.71960E+01  :     layer or path, emission temp, scale
 100  101 1400.200  0.72242E+01  :     layer or path, emission temp, scale
 101  100 1404.942  0.72602E+01  :     layer or path, emission temp, scale
 102   99 1409.927  0.72786E+01  :     layer or path, emission temp, scale
 103   98 1415.161  0.73061E+01  :     layer or path, emission temp, scale
 104   97 1420.661  0.73387E+01  :     layer or path, emission temp, scale
 105   96 1426.413  0.73647E+01  :     layer or path, emission temp, scale
 106   95 1432.190  0.73889E+01  :     layer or path, emission temp, scale
 107   94 1437.686  0.74274E+01  :     layer or path, emission temp, scale
 108   93 1443.365  0.74540E+01  :     layer or path, emission temp, scale
 109   92 1449.332  0.74853E+01  :     layer or path, emission temp, scale
 110   91 1455.599  0.75139E+01  :     layer or path, emission temp, scale
 111   90 1462.185  0.75465E+01  :     layer or path, emission temp, scale
 112   89 1469.112  0.75871E+01  :     layer or path, emission temp, scale
 113   88 1476.387  0.76037E+01  :     layer or path, emission temp, scale
 114   87 1484.025  0.76447E+01  :     layer or path, emission temp, scale
 115   86 1492.053  0.76797E+01  :     layer or path, emission temp, scale
 116   85 1500.361  0.77128E+01  :     layer or path, emission temp, scale
 117   84 1507.976  0.77537E+01  :     layer or path, emission temp, scale
 118   83 1515.437  0.77798E+01  :     layer or path, emission temp, scale
 119   82 1523.205  0.78207E+01  :     layer or path, emission temp, scale
 120   81 1531.370  0.78645E+01  :     layer or path, emission temp, scale
 121   80 1539.950  0.78955E+01  :     layer or path, emission temp, scale
 122   79 1548.964  0.79330E+01  :     layer or path, emission temp, scale
 123   78 1558.437  0.79740E+01  :     layer or path, emission temp, scale
 124   77 1568.386  0.80109E+01  :     layer or path, emission temp, scale
 125   76 1578.846  0.80617E+01  :     layer or path, emission temp, scale
 126   75 1589.771  0.81002E+01  :     layer or path, emission temp, scale
 127   74 1600.376  0.81318E+01  :     layer or path, emission temp, scale
 128   73 1609.734  0.81951E+01  :     layer or path, emission temp, scale
 129   72 1619.136  0.82305E+01  :     layer or path, emission temp, scale
 130   71 1629.008  0.82737E+01  :     layer or path, emission temp, scale
 131   70 1639.382  0.83299E+01  :     layer or path, emission temp, scale
 132   69 1650.288  0.83742E+01  :     layer or path, emission temp, scale
 133   68 1661.744  0.84242E+01  :     layer or path, emission temp, scale
 134   67 1673.780  0.84745E+01  :     layer or path, emission temp, scale
 135   66 1686.427  0.85269E+01  :     layer or path, emission temp, scale
 136   65 1699.712  0.85752E+01  :     layer or path, emission temp, scale
 137   64 1713.473  0.86336E+01  :     layer or path, emission temp, scale
 138   63 1725.017  0.87006E+01  :     layer or path, emission temp, scale
 139   62 1735.647  0.87439E+01  :     layer or path, emission temp, scale
 140   61 1746.637  0.88185E+01  :     layer or path, emission temp, scale
 141   60 1758.193  0.88743E+01  :     layer or path, emission temp, scale
 142   59 1770.319  0.89304E+01  :     layer or path, emission temp, scale
 143   58 1783.057  0.89996E+01  :     layer or path, emission temp, scale
 144   57 1796.450  0.90650E+01  :     layer or path, emission temp, scale
 145   56 1810.522  0.91367E+01  :     layer or path, emission temp, scale
 146   55 1825.312  0.92086E+01  :     layer or path, emission temp, scale
 147   54 1840.771  0.92816E+01  :     layer or path, emission temp, scale
 148   53 1855.209  0.93545E+01  :     layer or path, emission temp, scale
 149   52 1866.842  0.94409E+01  :     layer or path, emission temp, scale
 150   51 1877.929  0.95203E+01  :     layer or path, emission temp, scale
 151   50 1889.576  0.95989E+01  :     layer or path, emission temp, scale
 152   49 1901.810  0.96834E+01  :     layer or path, emission temp, scale
 153   48 1914.667  0.97755E+01  :     layer or path, emission temp, scale
 154   47 1928.178  0.98743E+01  :     layer or path, emission temp, scale
 155   46 1942.375  0.99635E+01  :     layer or path, emission temp, scale
 156   45 1957.286  0.10062E+02  :     layer or path, emission temp, scale
 157   44 1972.956  0.10167E+02  :     layer or path, emission temp, scale
 158   43 1989.262  0.10269E+02  :     layer or path, emission temp, scale
 159   42 2001.557  0.10400E+02  :     layer or path, emission temp, scale
 160   41 2011.651  0.10502E+02  :     layer or path, emission temp, scale
 161   40 2021.979  0.10625E+02  :     layer or path, emission temp, scale
 162   39 2032.831  0.10747E+02  :     layer or path, emission temp, scale
 163   38 2044.231  0.10873E+02  :     layer or path, emission temp, scale
 164   37 2056.209  0.11016E+02  :     layer or path, emission temp, scale
 165   36 2068.800  0.11162E+02  :     layer or path, emission temp, scale
 166   35 2082.029  0.11312E+02  :     layer or path, emission temp, scale
 167   34 2095.938  0.11475E+02  :     layer or path, emission temp, scale
 168   33 2110.500  0.11628E+02  :     layer or path, emission temp, scale
 169   32 2123.396  0.11812E+02  :     layer or path, emission temp, scale
 170   31 2132.374  0.11989E+02  :     layer or path, emission temp, scale
 171   30 2139.963  0.12177E+02  :     layer or path, emission temp, scale
 172   29 2147.938  0.12378E+02  :     layer or path, emission temp, scale
 173   28 2156.320  0.12601E+02  :     layer or path, emission temp, scale
 174   27 2165.128  0.12820E+02  :     layer or path, emission temp, scale
 175   26 2174.385  0.13067E+02  :     layer or path, emission temp, scale
 176   25 2184.109  0.13308E+02  :     layer or path, emission temp, scale
 177   24 2194.326  0.13597E+02  :     layer or path, emission temp, scale
 178   23 2205.063  0.13867E+02  :     layer or path, emission temp, scale
 179   22 2216.301  0.14196E+02  :     layer or path, emission temp, scale
 180   21 2223.543  0.14529E+02  :     layer or path, emission temp, scale
 181   20 2227.848  0.14890E+02  :     layer or path, emission temp, scale
 182   19 2232.193  0.15257E+02  :     layer or path, emission temp, scale
 183   18 2236.760  0.15706E+02  :     layer or path, emission temp, scale
 184   17 2241.561  0.16158E+02  :     layer or path, emission temp, scale
 185   16 2246.605  0.16665E+02  :     layer or path, emission temp, scale
 186   15 2251.904  0.17221E+02  :     layer or path, emission temp, scale
 187   14 2257.469  0.17836E+02  :     layer or path, emission temp, scale
 188   13 2263.323  0.18547E+02  :     layer or path, emission temp, scale
 189   12 2269.473  0.19306E+02  :     layer or path, emission temp, scale
 190   11 2274.521  0.20227E+02  :     layer or path, emission temp, scale
 191   10 2277.124  0.21248E+02  :     layer or path, emission temp, scale
 192    9 2278.572  0.22465E+02  :     layer or path, emission temp, scale
 193    8 2280.092  0.23892E+02  :     layer or path, emission temp, scale
 194    7 2281.691  0.25692E+02  :     layer or path, emission temp, scale
 195    6 2283.371  0.27930E+02  :     layer or path, emission temp, scale
 196    5 2285.137  0.30870E+02  :     layer or path, emission temp, scale
 197    4 2286.990  0.35039E+02  :     layer or path, emission temp, scale
 198    3 2288.939  0.41511E+02  :     layer or path, emission temp, scale
 199    2 2290.987  0.54180E+02  :     layer or path, emission temp, scale
 200    1 2293.138  0.13070E+03  :     layer or path, emission temp, scale
    1                                    : number of filter profile points
  0.00000E+00     0.000                  : filter profile point   1
 test_point_angle.out                                                                                
   1                                     :number of calculations
    2   2   2   0                        :type and # of parameters for calc  1
           1
           1
   90.0000000    
   0.00000000    
